File: LHC_elements/from_Benoit_BPMs/BPMstripline_140mm.dat
 Dstrippipe Lconnect Lpipe Lstrip M Rbeam Rbpm Rconn Riso1 Rpipe Rstrip Strip WStrip Xcurved Xstraight alfa angle beam_charge beam_sigma modes tap transStrip xbeam ybeam Freq[GHz] Imp_Real[Ohm] Imp_Imag[Ohm]
 2.9 6.38 200 120 1 1.1 4 0.55 3.5 74.4 69.02 4.38 1 3.09 6.2 11.6 15 1.7e-008 50 1 21.0215 12.25 0 10 0 0 -0.390721
 2.9 6.38 200 120 1 1.1 4 0.55 3.5 74.4 69.02 4.38 1 3.09 6.2 11.6 15 1.7e-008 50 1 21.0215 12.25 0 10 0.0819132 -0.061964 -0.410801
 2.9 6.38 200 120 1 1.1 4 0.55 3.5 74.4 69.02 4.38 1 3.09 6.2 11.6 15 1.7e-008 50 1 21.0215 12.25 0 10 0.163826 -0.122521 -0.385237
 2.9 6.38 200 120 1 1.1 4 0.55 3.5 74.4 69.02 4.38 1 3.09 6.2 11.6 15 1.7e-008 50 1 21.0215 12.25 0 10 0.245739 -0.170423 -0.349409
 2.9 6.38 200 120 1 1.1 4 0.55 3.5 74.4 69.02 4.38 1 3.09 6.2 11.6 15 1.7e-008 50 1 21.0215 12.25 0 10 0.327653 -0.20714 -0.299868
 2.9 6.38 200 120 1 1.1 4 0.55 3.5 74.4 69.02 4.38 1 3.09 6.2 11.6 15 1.7e-008 50 1 21.0215 12.25 0 10 0.409566 -0.227332 -0.250091
 2.9 6.38 200 120 1 1.1 4 0.55 3.5 74.4 69.02 4.38 1 3.09 6.2 11.6 15 1.7e-008 50 1 21.0215 12.25 0 10 0.491479 -0.233985 -0.19324
 2.9 6.38 200 120 1 1.1 4 0.55 3.5 74.4 69.02 4.38 1 3.09 6.2 11.6 15 1.7e-008 50 1 21.0215 12.25 0 10 0.573392 -0.222537 -0.148724
 2.9 6.38 200 120 1 1.1 4 0.55 3.5 74.4 69.02 4.38 1 3.09 6.2 11.6 15 1.7e-008 50 1 21.0215 12.25 0 10 0.655305 -0.204435 -0.102315
 2.9 6.38 200 120 1 1.1 4 0.55 3.5 74.4 69.02 4.38 1 3.09 6.2 11.6 15 1.7e-008 50 1 21.0215 12.25 0 10 0.737218 -0.167446 -0.0791875
 2.9 6.38 200 120 1 1.1 4 0.55 3.5 74.4 69.02 4.38 1 3.09 6.2 11.6 15 1.7e-008 50 1 21.0215 12.25 0 10 0.819132 -0.140817 -0.0559778
 2.9 6.38 200 120 1 1.1 4 0.55 3.5 74.4 69.02 4.38 1 3.09 6.2 11.6 15 1.7e-008 50 1 21.0215 12.25 0 10 0.901045 -0.0887187 -0.0612318
 2.9 6.38 200 120 1 1.1 4 0.55 3.5 74.4 69.02 4.38 1 3.09 6.2 11.6 15 1.7e-008 50 1 21.0215 12.25 0 10 0.982958 -0.0786211 -0.0664635
 2.9 6.38 200 120 1 1.1 4 0.55 3.5 74.4 69.02 4.38 1 3.09 6.2 11.6 15 1.7e-008 50 1 21.0215 12.25 0 10 1.06487 -0.00812709 -0.0926177
 2.9 6.38 200 120 1 1.1 4 0.55 3.5 74.4 69.02 4.38 1 3.09 6.2 11.6 15 1.7e-008 50 1 21.0215 12.25 0 10 1.14678 -0.067204 -0.152088
 2.9 6.38 200 120 1 1.1 4 0.55 3.5 74.4 69.02 4.38 1 3.09 6.2 11.6 15 1.7e-008 50 1 21.0215 12.25 0 10 1.2287 -0.691403 0.312298
 2.9 6.38 200 120 1 1.1 4 0.55 3.5 74.4 69.02 4.38 1 3.09 6.2 11.6 15 1.7e-008 50 1 21.0215 12.25 0 10 1.31061 -0.217564 0.0211397
 2.9 6.38 200 120 1 1.1 4 0.55 3.5 74.4 69.02 4.38 1 3.09 6.2 11.6 15 1.7e-008 50 1 21.0215 12.25 0 10 1.39252 -0.151549 -0.131938
 2.9 6.38 200 120 1 1.1 4 0.55 3.5 74.4 69.02 4.38 1 3.09 6.2 11.6 15 1.7e-008 50 1 21.0215 12.25 0 10 1.47444 -0.0930498 -0.0759903
 2.9 6.38 200 120 1 1.1 4 0.55 3.5 74.4 69.02 4.38 1 3.09 6.2 11.6 15 1.7e-008 50 1 21.0215 12.25 0 10 1.55635 -0.109329 -0.151584
 2.9 6.38 200 120 1 1.1 4 0.55 3.5 74.4 69.02 4.38 1 3.09 6.2 11.6 15 1.7e-008 50 1 21.0215 12.25 0 10 1.63826 -0.0655582 -0.118555
 2.9 6.38 200 120 1 1.1 4 0.55 3.5 74.4 69.02 4.38 1 3.09 6.2 11.6 15 1.7e-008 50 1 21.0215 12.25 0 10 1.72018 -0.136061 -0.182204
 2.9 6.38 200 120 1 1.1 4 0.55 3.5 74.4 69.02 4.38 1 3.09 6.2 11.6 15 1.7e-008 50 1 21.0215 12.25 0 10 1.80209 -0.163457 -0.111257
 2.9 6.38 200 120 1 1.1 4 0.55 3.5 74.4 69.02 4.38 1 3.09 6.2 11.6 15 1.7e-008 50 1 21.0215 12.25 0 10 1.884 -0.148897 -0.122386
 2.9 6.38 200 120 1 1.1 4 0.55 3.5 74.4 69.02 4.38 1 3.09 6.2 11.6 15 1.7e-008 50 1 21.0215 12.25 0 10 1.96592 -0.158101 -0.0473332
 2.9 6.38 200 120 1 1.1 4 0.55 3.5 74.4 69.02 4.38 1 3.09 6.2 11.6 15 1.7e-008 50 1 21.0215 12.25 0 10 2.04783 -0.0824304 -0.0899682
 2.9 6.38 200 120 1 1.1 4 0.55 3.5 74.4 69.02 4.38 1 3.09 6.2 11.6 15 1.7e-008 75 1 21.0215 12.25 0 10 0.0532436 -0.0372435 -0.413901
 2.9 6.38 200 120 1 1.1 4 0.55 3.5 74.4 69.02 4.38 1 3.09 6.2 11.6 15 1.7e-008 75 1 21.0215 12.25 0 10 0.107852 -0.0830591 -0.398783
 2.9 6.38 200 120 1 1.1 4 0.55 3.5 74.4 69.02 4.38 1 3.09 6.2 11.6 15 1.7e-008 75 1 21.0215 12.25 0 10 0.162461 -0.121912 -0.384677
 2.9 6.38 200 120 1 1.1 4 0.55 3.5 74.4 69.02 4.38 1 3.09 6.2 11.6 15 1.7e-008 75 1 21.0215 12.25 0 10 0.21707 -0.15378 -0.36048
 2.9 6.38 200 120 1 1.1 4 0.55 3.5 74.4 69.02 4.38 1 3.09 6.2 11.6 15 1.7e-008 75 1 21.0215 12.25 0 10 0.271679 -0.183863 -0.331171
 2.9 6.38 200 120 1 1.1 4 0.55 3.5 74.4 69.02 4.38 1 3.09 6.2 11.6 15 1.7e-008 75 1 21.0215 12.25 0 10 0.326287 -0.206615 -0.300503
 2.9 6.38 200 120 1 1.1 4 0.55 3.5 74.4 69.02 4.38 1 3.09 6.2 11.6 15 1.7e-008 75 1 21.0215 12.25 0 10 0.380896 -0.221529 -0.265789
 2.9 6.38 200 120 1 1.1 4 0.55 3.5 74.4 69.02 4.38 1 3.09 6.2 11.6 15 1.7e-008 75 1 21.0215 12.25 0 10 0.435505 -0.231134 -0.229878
 2.9 6.38 200 120 1 1.1 4 0.55 3.5 74.4 69.02 4.38 1 3.09 6.2 11.6 15 1.7e-008 75 1 21.0215 12.25 0 10 0.490114 -0.233597 -0.195838
 2.9 6.38 200 120 1 1.1 4 0.55 3.5 74.4 69.02 4.38 1 3.09 6.2 11.6 15 1.7e-008 75 1 21.0215 12.25 0 10 0.544722 -0.228268 -0.163065
 2.9 6.38 200 120 1 1.1 4 0.55 3.5 74.4 69.02 4.38 1 3.09 6.2 11.6 15 1.7e-008 75 1 21.0215 12.25 0 10 0.599331 -0.218013 -0.132188
 2.9 6.38 200 120 1 1.1 4 0.55 3.5 74.4 69.02 4.38 1 3.09 6.2 11.6 15 1.7e-008 75 1 21.0215 12.25 0 10 0.65394 -0.20359 -0.107328
 2.9 6.38 200 120 1 1.1 4 0.55 3.5 74.4 69.02 4.38 1 3.09 6.2 11.6 15 1.7e-008 75 1 21.0215 12.25 0 10 0.708549 -0.18219 -0.0876493
 2.9 6.38 200 120 1 1.1 4 0.55 3.5 74.4 69.02 4.38 1 3.09 6.2 11.6 15 1.7e-008 75 1 21.0215 12.25 0 10 0.763158 -0.159625 -0.0702933
 2.9 6.38 200 120 1 1.1 4 0.55 3.5 74.4 69.02 4.38 1 3.09 6.2 11.6 15 1.7e-008 75 1 21.0215 12.25 0 10 0.817766 -0.137995 -0.0638286
 2.9 6.38 200 120 1 1.1 4 0.55 3.5 74.4 69.02 4.38 1 3.09 6.2 11.6 15 1.7e-008 75 1 21.0215 12.25 0 10 0.872375 -0.108369 -0.0631961
 2.9 6.38 200 120 1 1.1 4 0.55 3.5 74.4 69.02 4.38 1 3.09 6.2 11.6 15 1.7e-008 75 1 21.0215 12.25 0 10 0.926984 -0.0860601 -0.0604675
 2.9 6.38 200 120 1 1.1 4 0.55 3.5 74.4 69.02 4.38 1 3.09 6.2 11.6 15 1.7e-008 75 1 21.0215 12.25 0 10 0.981593 -0.0697912 -0.078614
 2.9 6.38 200 120 1 1.1 4 0.55 3.5 74.4 69.02 4.38 1 3.09 6.2 11.6 15 1.7e-008 75 1 21.0215 12.25 0 10 1.0362 -0.0337776 -0.095363
 2.9 6.38 200 120 1 1.1 4 0.55 3.5 74.4 69.02 4.38 1 3.09 6.2 11.6 15 1.7e-008 75 1 21.0215 12.25 0 10 1.09081 -0.0302546 -0.0963957
 2.9 6.38 200 120 1 1.1 4 0.55 3.5 74.4 69.02 4.38 1 3.09 6.2 11.6 15 1.7e-008 75 1 21.0215 12.25 0 10 1.14542 -0.0314841 -0.175155
 2.9 6.38 200 120 1 1.1 4 0.55 3.5 74.4 69.02 4.38 1 3.09 6.2 11.6 15 1.7e-008 75 1 21.0215 12.25 0 10 1.20003 0.155895 -0.190192
 2.9 6.38 200 120 1 1.1 4 0.55 3.5 74.4 69.02 4.38 1 3.09 6.2 11.6 15 1.7e-008 75 1 21.0215 12.25 0 10 1.25464 0.0862565 -0.42817
 2.9 6.38 200 120 1 1.1 4 0.55 3.5 74.4 69.02 4.38 1 3.09 6.2 11.6 15 1.7e-008 75 1 21.0215 12.25 0 10 1.30925 -0.245424 0.0307732
 2.9 6.38 200 120 1 1.1 4 0.55 3.5 74.4 69.02 4.38 1 3.09 6.2 11.6 15 1.7e-008 75 1 21.0215 12.25 0 10 1.36385 -0.173792 -0.125594
 2.9 6.38 200 120 1 1.1 4 0.55 3.5 74.4 69.02 4.38 1 3.09 6.2 11.6 15 1.7e-008 100 1 21.0215 12.25 0 10 0.0389087 -0.0303693 -0.413417
 2.9 6.38 200 120 1 1.1 4 0.55 3.5 74.4 69.02 4.38 1 3.09 6.2 11.6 15 1.7e-008 100 1 21.0215 12.25 0 10 0.0798653 -0.061721 -0.407394
 2.9 6.38 200 120 1 1.1 4 0.55 3.5 74.4 69.02 4.38 1 3.09 6.2 11.6 15 1.7e-008 100 1 21.0215 12.25 0 10 0.120822 -0.0919666 -0.397527
 2.9 6.38 200 120 1 1.1 4 0.55 3.5 74.4 69.02 4.38 1 3.09 6.2 11.6 15 1.7e-008 100 1 21.0215 12.25 0 10 0.161778 -0.120409 -0.384143
 2.9 6.38 200 120 1 1.1 4 0.55 3.5 74.4 69.02 4.38 1 3.09 6.2 11.6 15 1.7e-008 100 1 21.0215 12.25 0 10 0.202735 -0.146358 -0.367484
 2.9 6.38 200 120 1 1.1 4 0.55 3.5 74.4 69.02 4.38 1 3.09 6.2 11.6 15 1.7e-008 100 1 21.0215 12.25 0 10 0.243692 -0.169426 -0.34778
 2.9 6.38 200 120 1 1.1 4 0.55 3.5 74.4 69.02 4.38 1 3.09 6.2 11.6 15 1.7e-008 100 1 21.0215 12.25 0 10 0.284648 -0.189434 -0.325602
 2.9 6.38 200 120 1 1.1 4 0.55 3.5 74.4 69.02 4.38 1 3.09 6.2 11.6 15 1.7e-008 100 1 21.0215 12.25 0 10 0.325605 -0.20598 -0.301737
 2.9 6.38 200 120 1 1.1 4 0.55 3.5 74.4 69.02 4.38 1 3.09 6.2 11.6 15 1.7e-008 100 1 21.0215 12.25 0 10 0.366561 -0.218563 -0.27666
 2.9 6.38 200 120 1 1.1 4 0.55 3.5 74.4 69.02 4.38 1 3.09 6.2 11.6 15 1.7e-008 100 1 21.0215 12.25 0 10 0.407518 -0.227175 -0.250647
 2.9 6.38 200 120 1 1.1 4 0.55 3.5 74.4 69.02 4.38 1 3.09 6.2 11.6 15 1.7e-008 100 1 21.0215 12.25 0 10 0.448475 -0.232157 -0.224443
 2.9 6.38 200 120 1 1.1 4 0.55 3.5 74.4 69.02 4.38 1 3.09 6.2 11.6 15 1.7e-008 100 1 21.0215 12.25 0 10 0.489431 -0.233395 -0.199069
 2.9 6.38 200 120 1 1.1 4 0.55 3.5 74.4 69.02 4.38 1 3.09 6.2 11.6 15 1.7e-008 100 1 21.0215 12.25 0 10 0.530388 -0.230541 -0.174864
 2.9 6.38 200 120 1 1.1 4 0.55 3.5 74.4 69.02 4.38 1 3.09 6.2 11.6 15 1.7e-008 100 1 21.0215 12.25 0 10 0.571344 -0.224131 -0.151781
 2.9 6.38 200 120 1 1.1 4 0.55 3.5 74.4 69.02 4.38 1 3.09 6.2 11.6 15 1.7e-008 100 1 21.0215 12.25 0 10 0.612301 -0.215154 -0.130703
 2.9 6.38 200 120 1 1.1 4 0.55 3.5 74.4 69.02 4.38 1 3.09 6.2 11.6 15 1.7e-008 100 1 21.0215 12.25 0 10 0.653257 -0.203456 -0.112866
 2.9 6.38 200 120 1 1.1 4 0.55 3.5 74.4 69.02 4.38 1 3.09 6.2 11.6 15 1.7e-008 100 1 21.0215 12.25 0 10 0.694214 -0.188519 -0.0979372
 2.9 6.38 200 120 1 1.1 4 0.55 3.5 74.4 69.02 4.38 1 3.09 6.2 11.6 15 1.7e-008 100 1 21.0215 12.25 0 10 0.735171 -0.171761 -0.0850924
 2.9 6.38 200 120 1 1.1 4 0.55 3.5 74.4 69.02 4.38 1 3.09 6.2 11.6 15 1.7e-008 100 1 21.0215 12.25 0 10 0.776127 -0.155034 -0.0758342
 2.9 6.38 200 120 1 1.1 4 0.55 3.5 74.4 69.02 4.38 1 3.09 6.2 11.6 15 1.7e-008 100 1 21.0215 12.25 0 10 0.817084 -0.137133 -0.0719083
 2.9 6.38 200 120 1 1.1 4 0.55 3.5 74.4 69.02 4.38 1 3.09 6.2 11.6 15 1.7e-008 100 1 21.0215 12.25 0 10 0.85804 -0.116664 -0.0710026
 2.9 6.38 200 120 1 1.1 4 0.55 3.5 74.4 69.02 4.38 1 3.09 6.2 11.6 15 1.7e-008 100 1 21.0215 12.25 0 10 0.898997 -0.0974159 -0.0707805
 2.9 6.38 200 120 1 1.1 4 0.55 3.5 74.4 69.02 4.38 1 3.09 6.2 11.6 15 1.7e-008 100 1 21.0215 12.25 0 10 0.939953 -0.0826803 -0.0757742
 2.9 6.38 200 120 1 1.1 4 0.55 3.5 74.4 69.02 4.38 1 3.09 6.2 11.6 15 1.7e-008 100 1 21.0215 12.25 0 10 0.98091 -0.0663281 -0.0894242
 2.9 6.38 200 120 1 1.1 4 0.55 3.5 74.4 69.02 4.38 1 3.09 6.2 11.6 15 1.7e-008 100 1 21.0215 12.25 0 10 1.02187 -0.0442179 -0.102262
 2.9 6.38 200 120 1 1.1 4 0.55 3.5 74.4 69.02 4.38 1 3.09 6.2 11.6 15 1.7e-008 100 1 21.0215 12.25 0 10 1.02391 -0.0471931 -0.105298