File: LHC_elements/from_Benoit_BPMs/pourNicoStripline_better.txt
 Dstrippipe Lconnect Lpipe Lstrip M Rbeam Rbpm Rconn Riso1 Rpipe Rstrip Strip WStrip Xcurved Xstraight alfa angle beam_charge beam_sigma modes tap transStrip xbeam ybeam Freq[GHz] Imp_Real[Ohm] Imp_Imag[Ohm]
 2.9 6.38 200 120 1 1.1 4 0.55 3.5 34.4 29.02 4.38 1 3.09 6.2 11.6 15 1.7e-008 50 1 21.0215 12.25 0 10 0 0 -7.9515
 2.9 6.38 200 120 1 1.1 4 0.55 3.5 34.4 29.02 4.38 1 3.09 6.2 11.6 15 1.7e-008 50 1 21.0215 12.25 0 10 0.243692 -3.19901 -6.47859
 2.9 6.38 200 120 1 1.1 4 0.55 3.5 34.4 29.02 4.38 1 3.09 6.2 11.6 15 1.7e-008 50 1 21.0215 12.25 0 10 0.487383 -4.34268 -3.55465
 2.9 6.38 200 120 1 1.1 4 0.55 3.5 34.4 29.02 4.38 1 3.09 6.2 11.6 15 1.7e-008 50 1 21.0215 12.25 0 10 0.731075 -3.21983 -1.19401
 2.9 6.38 200 120 1 1.1 4 0.55 3.5 34.4 29.02 4.38 1 3.09 6.2 11.6 15 1.7e-008 50 1 21.0215 12.25 0 10 0.974767 -1.23617 -0.682985
 2.9 6.38 200 120 1 1.1 4 0.55 3.5 34.4 29.02 4.38 1 3.09 6.2 11.6 15 1.7e-008 50 1 21.0215 12.25 0 10 1.21846 -0.0887909 -1.69332
 2.9 6.38 200 120 1 1.1 4 0.55 3.5 34.4 29.02 4.38 1 3.09 6.2 11.6 15 1.7e-008 50 1 21.0215 12.25 0 10 1.46215 -0.342001 -2.7627
 2.9 6.38 200 120 1 1.1 4 0.55 3.5 34.4 29.02 4.38 1 3.09 6.2 11.6 15 1.7e-008 50 1 21.0215 12.25 0 10 1.70584 -1.0996 -2.882
 2.9 6.38 200 120 1 1.1 4 0.55 3.5 34.4 29.02 4.38 1 3.09 6.2 11.6 15 1.7e-008 50 1 21.0215 12.25 0 10 1.94953 -1.2936 -2.36412
 2.9 6.38 200 120 1 1.1 4 0.55 3.5 34.4 29.02 4.38 1 3.09 6.2 11.6 15 1.7e-008 75 1 21.0215 12.25 0 10 0.0955653 -1.4064 -7.68375
 2.9 6.38 200 120 1 1.1 4 0.55 3.5 34.4 29.02 4.38 1 3.09 6.2 11.6 15 1.7e-008 75 1 21.0215 12.25 0 10 0.258026 -3.34294 -6.40452
 2.9 6.38 200 120 1 1.1 4 0.55 3.5 34.4 29.02 4.38 1 3.09 6.2 11.6 15 1.7e-008 75 1 21.0215 12.25 0 10 0.420488 -4.28749 -4.46336
 2.9 6.38 200 120 1 1.1 4 0.55 3.5 34.4 29.02 4.38 1 3.09 6.2 11.6 15 1.7e-008 75 1 21.0215 12.25 0 10 0.582949 -4.11767 -2.5408
 2.9 6.38 200 120 1 1.1 4 0.55 3.5 34.4 29.02 4.38 1 3.09 6.2 11.6 15 1.7e-008 75 1 21.0215 12.25 0 10 0.74541 -3.10568 -1.2057
 2.9 6.38 200 120 1 1.1 4 0.55 3.5 34.4 29.02 4.38 1 3.09 6.2 11.6 15 1.7e-008 75 1 21.0215 12.25 0 10 0.907871 -1.75573 -0.748567
 2.9 6.38 200 120 1 1.1 4 0.55 3.5 34.4 29.02 4.38 1 3.09 6.2 11.6 15 1.7e-008 75 1 21.0215 12.25 0 10 1.07033 -0.615588 -1.11703
 2.9 6.38 200 120 1 1.1 4 0.55 3.5 34.4 29.02 4.38 1 3.09 6.2 11.6 15 1.7e-008 75 1 21.0215 12.25 0 10 1.23279 -0.0681492 -1.94853
 2.9 6.38 200 120 1 1.1 4 0.55 3.5 34.4 29.02 4.38 1 3.09 6.2 11.6 15 1.7e-008 100 1 21.0215 12.25 0 10 0.0215022 -0.367012 -7.89874
 2.9 6.38 200 120 1 1.1 4 0.55 3.5 34.4 29.02 4.38 1 3.09 6.2 11.6 15 1.7e-008 100 1 21.0215 12.25 0 10 0.143348 -2.05721 -7.40504
 2.9 6.38 200 120 1 1.1 4 0.55 3.5 34.4 29.02 4.38 1 3.09 6.2 11.6 15 1.7e-008 100 1 21.0215 12.25 0 10 0.265194 -3.41047 -6.3208
 2.9 6.38 200 120 1 1.1 4 0.55 3.5 34.4 29.02 4.38 1 3.09 6.2 11.6 15 1.7e-008 100 1 21.0215 12.25 0 10 0.38704 -4.18716 -4.87924
 2.9 6.38 200 120 1 1.1 4 0.55 3.5 34.4 29.02 4.38 1 3.09 6.2 11.6 15 1.7e-008 100 1 21.0215 12.25 0 10 0.508885 -4.32193 -3.37279
 2.9 6.38 200 120 1 1.1 4 0.55 3.5 34.4 29.02 4.38 1 3.09 6.2 11.6 15 1.7e-008 100 1 21.0215 12.25 0 10 0.630731 -3.88534 -2.07139
 2.9 6.38 200 120 1 1.1 4 0.55 3.5 34.4 29.02 4.38 1 3.09 6.2 11.6 15 1.7e-008 100 1 21.0215 12.25 0 10 0.752577 -3.04749 -1.17265
 2.9 6.38 200 120 1 1.1 4 0.55 3.5 34.4 29.02 4.38 1 3.09 6.2 11.6 15 1.7e-008 100 1 21.0215 12.25 0 10 0.874423 -2.03495 -0.774994
 2.9 6.38 200 120 1 1.1 4 0.55 3.5 34.4 29.02 4.38 1 3.09 6.2 11.6 15 1.7e-008 100 1 21.0215 12.25 0 10 0.996269 -1.08494 -0.865615
 2.9 6.38 200 120 1 1.1 4 0.55 3.5 44.4 39.02 4.38 1 3.09 6.2 11.6 15 1.7e-008 50 1 21.0215 12.25 0 10 0.186352 -0.847925 -2.61481
 2.9 6.38 200 120 1 1.1 4 0.55 3.5 44.4 39.02 4.38 1 3.09 6.2 11.6 15 1.7e-008 50 1 21.0215 12.25 0 10 0.430044 -1.43565 -1.72006
 2.9 6.38 200 120 1 1.1 4 0.55 3.5 44.4 39.02 4.38 1 3.09 6.2 11.6 15 1.7e-008 50 1 21.0215 12.25 0 10 0.673736 -1.22023 -0.834154
 2.9 6.38 200 120 1 1.1 4 0.55 3.5 44.4 39.02 4.38 1 3.09 6.2 11.6 15 1.7e-008 50 1 21.0215 12.25 0 10 0.917427 -0.563085 -0.520992
 2.9 6.38 200 120 1 1.1 4 0.55 3.5 44.4 39.02 4.38 1 3.09 6.2 11.6 15 1.7e-008 50 1 21.0215 12.25 0 10 1.16112 -0.0732312 -0.807023
 2.9 6.38 200 120 1 1.1 4 0.55 3.5 44.4 39.02 4.38 1 3.09 6.2 11.6 15 1.7e-008 50 1 21.0215 12.25 0 10 1.40481 -0.0626802 -1.24956
 2.9 6.38 200 120 1 1.1 4 0.55 3.5 44.4 39.02 4.38 1 3.09 6.2 11.6 15 1.7e-008 50 1 21.0215 12.25 0 10 1.6485 -0.324169 -1.42506
 2.9 6.38 200 120 1 1.1 4 0.55 3.5 44.4 39.02 4.38 1 3.09 6.2 11.6 15 1.7e-008 50 1 21.0215 12.25 0 10 1.89219 -0.363312 -1.38877
 2.9 6.38 200 120 1 1.1 4 0.55 3.5 44.4 39.02 4.38 1 3.09 6.2 11.6 15 1.7e-008 75 1 21.0215 12.25 0 10 0.0573392 -0.276569 -2.86484
 2.9 6.38 200 120 1 1.1 4 0.55 3.5 44.4 39.02 4.38 1 3.09 6.2 11.6 15 1.7e-008 75 1 21.0215 12.25 0 10 0.2198 -0.973908 -2.53915
 2.9 6.38 200 120 1 1.1 4 0.55 3.5 44.4 39.02 4.38 1 3.09 6.2 11.6 15 1.7e-008 75 1 21.0215 12.25 0 10 0.382261 -1.38391 -1.94719
 2.9 6.38 200 120 1 1.1 4 0.55 3.5 44.4 39.02 4.38 1 3.09 6.2 11.6 15 1.7e-008 75 1 21.0215 12.25 0 10 0.544722 -1.42198 -1.30072
 2.9 6.38 200 120 1 1.1 4 0.55 3.5 44.4 39.02 4.38 1 3.09 6.2 11.6 15 1.7e-008 75 1 21.0215 12.25 0 10 0.707184 -1.14074 -0.810228
 2.9 6.38 200 120 1 1.1 4 0.55 3.5 44.4 39.02 4.38 1 3.09 6.2 11.6 15 1.7e-008 75 1 21.0215 12.25 0 10 0.869645 -0.697768 -0.607175
 2.9 6.38 200 120 1 1.1 4 0.55 3.5 44.4 39.02 4.38 1 3.09 6.2 11.6 15 1.7e-008 75 1 21.0215 12.25 0 10 1.03211 -0.285061 -0.702178
 2.9 6.38 200 120 1 1.1 4 0.55 3.5 44.4 39.02 4.38 1 3.09 6.2 11.6 15 1.7e-008 75 1 21.0215 12.25 0 10 1.19457 -0.047919 -0.993606
 2.9 6.38 200 120 1 1.1 4 0.55 3.5 44.4 39.02 4.38 1 3.09 6.2 11.6 15 1.7e-008 75 1 21.0215 12.25 0 10 1.35703 -0.0275169 -1.32562
 2.9 6.38 200 120 1 1.1 4 0.55 3.5 44.4 39.02 4.38 1 3.09 6.2 11.6 15 1.7e-008 100 1 21.0215 12.25 0 10 0.114678 -0.540277 -2.80043
 2.9 6.38 200 120 1 1.1 4 0.55 3.5 44.4 39.02 4.38 1 3.09 6.2 11.6 15 1.7e-008 100 1 21.0215 12.25 0 10 0.236524 -1.03229 -2.49367
 2.9 6.38 200 120 1 1.1 4 0.55 3.5 44.4 39.02 4.38 1 3.09 6.2 11.6 15 1.7e-008 100 1 21.0215 12.25 0 10 0.35837 -1.34896 -2.04749
 2.9 6.38 200 120 1 1.1 4 0.55 3.5 44.4 39.02 4.38 1 3.09 6.2 11.6 15 1.7e-008 100 1 21.0215 12.25 0 10 0.480216 -1.45396 -1.55235
 2.9 6.38 200 120 1 1.1 4 0.55 3.5 44.4 39.02 4.38 1 3.09 6.2 11.6 15 1.7e-008 100 1 21.0215 12.25 0 10 0.602062 -1.35463 -1.10338
 2.9 6.38 200 120 1 1.1 4 0.55 3.5 44.4 39.02 4.38 1 3.09 6.2 11.6 15 1.7e-008 100 1 21.0215 12.25 0 10 0.723907 -1.09861 -0.779252
 2.9 6.38 200 120 1 1.1 4 0.55 3.5 44.4 39.02 4.38 1 3.09 6.2 11.6 15 1.7e-008 100 1 21.0215 12.25 0 10 0.845753 -0.761079 -0.626535
 2.9 6.38 200 120 1 1.1 4 0.55 3.5 44.4 39.02 4.38 1 3.09 6.2 11.6 15 1.7e-008 100 1 21.0215 12.25 0 10 0.967599 -0.426928 -0.65162
 2.9 6.38 200 120 1 1.1 4 0.55 3.5 74.4 69.02 4.38 1 3.09 6.2 11.6 15 1.7e-008 50 1 21.0215 12.25 0 10 0.129013 -0.0980999 -0.39917
 2.9 6.38 200 120 1 1.1 4 0.55 3.5 74.4 69.02 4.38 1 3.09 6.2 11.6 15 1.7e-008 50 1 21.0215 12.25 0 10 0.372705 -0.220431 -0.27103
 2.9 6.38 200 120 1 1.1 4 0.55 3.5 74.4 69.02 4.38 1 3.09 6.2 11.6 15 1.7e-008 50 1 21.0215 12.25 0 10 0.616396 -0.210681 -0.124423
 2.9 6.38 200 120 1 1.1 4 0.55 3.5 74.4 69.02 4.38 1 3.09 6.2 11.6 15 1.7e-008 50 1 21.0215 12.25 0 10 0.860088 -0.120003 -0.0642604
 2.9 6.38 200 120 1 1.1 4 0.55 3.5 74.4 69.02 4.38 1 3.09 6.2 11.6 15 1.7e-008 50 1 21.0215 12.25 0 10 1.10378 -0.0529564 -0.0908665
 2.9 6.38 200 120 1 1.1 4 0.55 3.5 74.4 69.02 4.38 1 3.09 6.2 11.6 15 1.7e-008 50 1 21.0215 12.25 0 10 1.34747 -0.182517 -0.112943
 2.9 6.38 200 120 1 1.1 4 0.55 3.5 74.4 69.02 4.38 1 3.09 6.2 11.6 15 1.7e-008 50 1 21.0215 12.25 0 10 1.59116 -0.155987 -0.0530297
 2.9 6.38 200 120 1 1.1 4 0.55 3.5 74.4 69.02 4.38 1 3.09 6.2 11.6 15 1.7e-008 50 1 21.0215 12.25 0 10 1.83485 -0.142161 -0.105535
 2.9 6.38 200 120 1 1.1 4 0.55 3.5 74.4 69.02 4.38 1 3.09 6.2 11.6 15 1.7e-008 75 1 21.0215 12.25 0 10 0.0191131 -0.0109985 -0.403703
 2.9 6.38 200 120 1 1.1 4 0.55 3.5 74.4 69.02 4.38 1 3.09 6.2 11.6 15 1.7e-008 75 1 21.0215 12.25 0 10 0.181574 -0.134036 -0.374961
 2.9 6.38 200 120 1 1.1 4 0.55 3.5 74.4 69.02 4.38 1 3.09 6.2 11.6 15 1.7e-008 75 1 21.0215 12.25 0 10 0.344035 -0.212694 -0.288792
 2.9 6.38 200 120 1 1.1 4 0.55 3.5 74.4 69.02 4.38 1 3.09 6.2 11.6 15 1.7e-008 75 1 21.0215 12.25 0 10 0.506496 -0.232981 -0.185369
 2.9 6.38 200 120 1 1.1 4 0.55 3.5 74.4 69.02 4.38 1 3.09 6.2 11.6 15 1.7e-008 75 1 21.0215 12.25 0 10 0.668957 -0.198613 -0.101088
 2.9 6.38 200 120 1 1.1 4 0.55 3.5 74.4 69.02 4.38 1 3.09 6.2 11.6 15 1.7e-008 75 1 21.0215 12.25 0 10 0.831419 -0.131289 -0.0639011
 2.9 6.38 200 120 1 1.1 4 0.55 3.5 74.4 69.02 4.38 1 3.09 6.2 11.6 15 1.7e-008 75 1 21.0215 12.25 0 10 0.99388 -0.0584687 -0.0857211
 2.9 6.38 200 120 1 1.1 4 0.55 3.5 74.4 69.02 4.38 1 3.09 6.2 11.6 15 1.7e-008 75 1 21.0215 12.25 0 10 1.15634 0.0329777 -0.175893
 2.9 6.38 200 120 1 1.1 4 0.55 3.5 74.4 69.02 4.38 1 3.09 6.2 11.6 15 1.7e-008 75 1 21.0215 12.25 0 10 1.3188 -0.259642 -0.0735388
 2.9 6.38 200 120 1 1.1 4 0.55 3.5 74.4 69.02 4.38 1 3.09 6.2 11.6 15 1.7e-008 100 1 21.0215 12.25 0 10 0.0860088 -0.066497 -0.406213
 2.9 6.38 200 120 1 1.1 4 0.55 3.5 74.4 69.02 4.38 1 3.09 6.2 11.6 15 1.7e-008 100 1 21.0215 12.25 0 10 0.207855 -0.149449 -0.365035
 2.9 6.38 200 120 1 1.1 4 0.55 3.5 74.4 69.02 4.38 1 3.09 6.2 11.6 15 1.7e-008 100 1 21.0215 12.25 0 10 0.3297 -0.207269 -0.299192
 2.9 6.38 200 120 1 1.1 4 0.55 3.5 74.4 69.02 4.38 1 3.09 6.2 11.6 15 1.7e-008 100 1 21.0215 12.25 0 10 0.451546 -0.232227 -0.222645
 2.9 6.38 200 120 1 1.1 4 0.55 3.5 74.4 69.02 4.38 1 3.09 6.2 11.6 15 1.7e-008 100 1 21.0215 12.25 0 10 0.573392 -0.223825 -0.150901
 2.9 6.38 200 120 1 1.1 4 0.55 3.5 74.4 69.02 4.38 1 3.09 6.2 11.6 15 1.7e-008 100 1 21.0215 12.25 0 10 0.695238 -0.188347 -0.0976048
 2.9 6.38 200 120 1 1.1 4 0.55 3.5 74.4 69.02 4.38 1 3.09 6.2 11.6 15 1.7e-008 100 1 21.0215 12.25 0 10 0.817084 -0.137133 -0.0719083
 2.9 6.38 200 120 1 1.1 4 0.55 3.5 74.4 69.02 4.38 1 3.09 6.2 11.6 15 1.7e-008 100 1 21.0215 12.25 0 10 0.93893 -0.0836889 -0.0764978
 2.9 6.38 200 120 1 1.1 4 0.55 3.5 74.4 69.02 4.38 1 3.09 6.2 11.6 15 1.7e-008 100 1 21.0215 12.25 0 10 1.02391 -0.0471931 -0.105298